File: Fig 2/Fig2_XRD_balcite_9mo.csv
Bragg_angle,Intensity
\circ,a.u.
5,8045
5.25,7605
5.5,7172
5.75,7020
6,6710
6.25,6540
6.5,6447
6.75,6158
7,5868
7.25,5686
7.5,5600
7.75,5413
8,5276
8.25,5294
8.5,5176
8.75,5015
9,4975
9.25,4841
9.5,4841
9.75,4677
10,4557
10.25,4552
10.5,4556
10.75,4282
11,4425
11.25,4369
11.5,4366
11.75,4199
12,4171
12.25,4106
12.5,3880
12.75,3973
13,3712
13.25,3573
13.5,3558
13.75,3511
14,3505
14.25,3367
14.5,3276
14.75,3108
15,3082
15.25,3056
15.5,3014
15.75,2945
16,2705
16.25,2819
16.5,2706
16.75,2597
17,2558
17.25,2597
17.5,2539
17.75,2415
18,2434
18.25,2435
18.5,2344
18.75,2233
19,2249
19.25,2383
19.5,3277
19.75,2627
20,2864
20.25,2186
20.5,2069
20.75,2121
21,1974
21.25,1945
21.5,1922
21.75,2090
22,2058
22.25,2159
22.5,2475
22.75,2051
23,2295
23.25,2045
23.5,2289
23.75,3846
24,17031
24.25,9681
24.5,8056
24.75,1960
25,1683
25.25,1544
25.5,1455
25.75,1509
26,1403
26.25,1368
26.5,1373
26.75,1319
27,1320
27.25,1327
27.5,1378
27.75,2250
28,2815
28.25,2007
28.5,3162
28.75,1885
29,2099
29.25,7214
29.5,1689
29.75,1776
30,1276
30.25,1182
30.5,1094
30.75,1122
31,1390
31.25,1667
31.5,1255
31.75,1203
32,1089
32.25,1087
32.5,1134
32.75,1170
33,1096
33.25,1180
33.5,1318
33.75,1778
34,2905
34.25,4205
34.5,4925
34.75,5787
35,1804
35.25,1273
35.5,1158
35.75,1089
36,916
36.25,823
36.5,753
36.75,761
37,756
37.25,751
37.5,765
37.75,762
38,841
38.25,775
38.5,731
38.75,744
39,772
39.25,1112
39.5,1091
39.75,1583
40,916
40.25,832
40.5,1012
40.75,1003
41,822
41.25,867
41.5,905
41.75,1188
42,2140
42.25,4153
42.5,2350
42.75,1579
43,2328
43.25,2639
43.5,963
43.75,911
44,939
44.25,1351
44.5,1897
44.75,1699
45,2840
45.25,3432
45.5,1321
45.75,1118
46,1002
46.25,965
46.5,1078
46.75,1781
47,4338
47.25,4258
47.5,2252
47.75,1118
48,909
48.25,1448
48.5,783
48.75,658
49,737
49.25,843
49.5,682
49.75,572
50,762
50.25,626
50.5,477
50.75,447
51,447
51.25,429
51.5,447
51.75,450
52,404
52.25,456
52.5,447
52.75,514
53,604
53.25,510
53.5,506
53.75,605
54,629
54.25,627
54.5,678
54.75,884
55,993
55.25,920
55.5,827
55.75,993
56,1473
56.25,1178
56.5,1232
56.75,1056
57,649
57.25,751
57.5,669
57.75,609
58,564
58.25,502
58.5,468
58.75,505
59,554
59.25,699
59.5,754
59.75,661
60,618
60.25,705
60.5,752
60.75,748
61,897
61.25,954
61.5,946
61.75,885
62,776
62.25,770
62.5,707
62.75,676
63,611
63.25,499
63.5,493
63.75,478
64,531
64.25,533
64.5,681
64.75,850
65,1231
65.25,1059
65.5,796
65.75,571
66,495
66.25,429
66.5,466
66.75,418
67,458
67.25,393
67.5,426
67.75,489
68,593
68.25,787
68.5,1022
68.75,1008
69,1061
69.25,885
69.5,839
69.75,881
70,1039
70.25,1037
70.5,831
70.75,892
71,944
71.25,1048
71.5,942
71.75,685
72,554
72.25,572
72.5,571
72.75,588
73,531
73.25,659
73.5,628
73.75,484
74,423
74.25,380
74.5,358
74.75,405
75,379