File: Fig 2/Fig2_XRD_balcite_7mo.csv
Bragg_angle,Intensity
\circ,a.u.
10,4366
10.25,4350
10.5,4170
10.75,4041
11,4090
11.25,4040
11.5,3790
11.75,3840
12,3822
12.25,3650
12.5,3550
12.75,3609
13,3484
13.25,3348
13.5,3293
13.75,3117
14,3038
14.25,3116
14.5,2965
14.75,2973
15,2876
15.25,2843
15.5,2898
15.75,2683
16,2701
16.25,2704
16.5,2675
16.75,2554
17,2540
17.25,2435
17.5,2457
17.75,2340
18,2351
18.25,2360
18.5,2203
18.75,2304
19,2168
19.25,2213
19.5,2877
19.75,2606
20,2604
20.25,2154
20.5,1980
20.75,2002
21,2013
21.25,1922
21.5,1962
21.75,2008
22,2006
22.25,2560
22.5,3531
22.75,2228
23,2432
23.25,2036
23.5,2164
23.75,3038
24,10994
24.25,9494
24.5,9687
24.75,2005
25,1697
25.25,1547
25.5,1561
25.75,1491
26,1366
26.25,1358
26.5,1313
26.75,1267
27,1327
27.25,1258
27.5,1332
27.75,1901
28,2827
28.25,3633
28.5,4691
28.75,2574
29,1924
29.25,6059
29.5,1643
29.75,1720
30,1318
30.25,1105
30.5,1097
30.75,1007
31,1186
31.25,1376
31.5,1174
31.75,1135
32,1091
32.25,1067
32.5,1017
32.75,1136
33,1035
33.25,1101
33.5,1279
33.75,1513
34,2371
34.25,3294
34.5,4161
34.75,4714
35,2371
35.25,1979
35.5,1357
35.75,1089
36,1027
36.25,900
36.5,803
36.75,830
37,741
37.25,839
37.5,820
37.75,856
38,862
38.25,832
38.5,765
38.75,825
39,865
39.25,1043
39.5,1007
39.75,1412
40,990
40.25,782
40.5,949
40.75,1095
41,845
41.25,886
41.5,915
41.75,1189
42,2106
42.25,3997
42.5,2541
42.75,1501
43,2015
43.25,2535
43.5,1071
43.75,866
44,916
44.25,1197
44.5,1679
44.75,1662
45,2286
45.25,3549
45.5,1766
45.75,1520
46,1185
46.25,1113
46.5,1223
46.75,1871
47,3602
47.25,3885
47.5,2354
47.75,1095
48,943
48.25,1181
48.5,775
48.75,648
49,645
49.25,786
49.5,728
49.75,661
50,698
50.25,631
50.5,482
50.75,482
51,464
51.25,472
51.5,441
51.75,428
52,435
52.25,446
52.5,437
52.75,514
53,546
53.25,532
53.5,538
53.75,532
54,640
54.25,593
54.5,692
54.75,799
55,915
55.25,913
55.5,828
55.75,1009
56,1341
56.25,1287
56.5,1083
56.75,1107
57,636
57.25,666
57.5,642
57.75,645
58,558
58.25,489
58.5,489
58.75,650
59,715
59.25,741
59.5,746
59.75,656
60,620
60.25,745
60.5,730
60.75,741
61,800
61.25,847
61.5,879
61.75,832
62,728
62.25,640
62.5,668
62.75,665
63,683
63.25,602
63.5,431
63.75,503
64,505
64.25,508
64.5,605
64.75,721
65,1055
65.25,898
65.5,697
65.75,566
66,487
66.25,456
66.5,392
66.75,414
67,457
67.25,433
67.5,463
67.75,491
68,561
68.25,632
68.5,843
68.75,951
69,1001
69.25,894
69.5,855
69.75,762
70,922
,