File: Fig 2/Fig2_XRD_SigmaCalcite.csv
Bragg_angle,Intensity
\circ,a.u.
5,329
5.3,347
5.6,304
5.9,318
6.2,347
6.5,336
6.8,313
7.1,228
7.4,258
7.7,251
8,233
8.3,295
8.6,291
8.9,345
9.2,450
9.5,483
9.8,482
10.1,448
10.4,322
10.7,220
11,202
11.3,176
11.6,204
11.9,197
12.2,154
12.5,163
12.8,176
13.1,153
13.4,166
13.7,170
14,179
14.3,144
14.6,161
14.9,146
15.2,158
15.5,134
15.8,145
16.1,127
16.4,138
16.7,140
17,143
17.3,133
17.6,100
17.9,116
18.2,113
18.5,108
18.8,119
19.1,93
19.4,100
19.7,108
20,82
20.3,89
20.6,83
20.9,92
21.2,78
21.5,92
21.8,77
22.1,90
22.4,79
22.7,97
23,721
23.3,95
23.6,66
23.9,93
24.2,83
24.5,73
24.8,84
25.1,77
25.4,83
25.7,71
26,75
26.3,60
26.6,140
26.9,79
27.2,78
27.5,62
27.8,63
28.1,72
28.4,101
28.7,119
29,116
29.3,2706
29.6,635
29.9,111
30.2,89
30.5,88
30.8,81
31.1,95
31.4,247
31.7,71
32,79
32.3,58
32.6,62
32.9,65
33.2,67
33.5,60
33.8,60
34.1,66
34.4,52
34.7,58
35,67
35.3,67
35.6,67
35.9,631
36.2,110
36.5,60
36.8,63
37.1,56
37.4,50
37.7,52
38,59
38.3,49
38.6,57
38.9,79
39.2,156
39.5,1767
39.8,70
40.1,56
40.4,48
40.7,60
41,53
41.3,54
41.6,46
41.9,48
42.2,56
42.5,45
42.8,74
43.1,895
43.4,151
43.7,70
44,59
44.3,68
44.6,53
44.9,49
45.2,58
45.5,46
45.8,52
46.1,55
46.4,62
46.7,55
47,176
47.3,370
47.6,1503
47.9,69
48.2,89
48.5,2237
48.8,137
49.1,68
49.4,54
49.7,52
50,47
50.3,54
50.6,54
50.9,53
51.2,58
51.5,62
51.8,50
52.1,33
52.4,45
52.7,49
53,42
53.3,57
53.6,31
53.9,47
54.2,37
54.5,55
54.8,44
55.1,46
55.4,49
55.7,47
56,38
56.3,50
56.6,371
56.9,59
57.2,97
57.5,516
57.8,55
58.1,155
58.4,38
58.7,35
59,30
59.3,34
59.6,28
59.9,36
60.2,53
60.5,74
60.8,305
61.1,168
61.4,251
61.7,51
62,33
62.3,36
62.6,37
62.9,72
63.2,126
63.5,44
63.8,36
64.1,36
64.4,42
64.7,508
65,57
65.3,47
65.6,392
65.9,59
66.2,45
66.5,30
66.8,43
67.1,34
67.4,40
67.7,31
68,23
68.3,33
68.6,48
68.9,34
69.2,169
69.5,49
69.8,31
70.1,57
70.4,140
70.7,38
71,32
71.3,38
71.6,32
71.9,38
72.2,42
72.5,45
72.8,169
73.1,198
73.4,46
73.7,109
74,31
74.3,40
74.6,26
74.9,32
75.2,37
75.5,35
75.8,27
76.1,39
76.4,60
76.7,39
77,65
77.3,97
77.6,27
77.9,25
78.2,35
78.5,31
78.8,32
79.1,26
79.4,43
79.7,26
80,27