File: Fig 2/Fig2_XRD_balcite_as_synth.csv
Bragg_angle,Intensity
\circ,a.u.
10,348
10.21,266
10.42,262
10.63,146
10.84,160
11.05,136
11.26,141
11.47,154
11.68,146
11.89,129
12.1,126
12.31,178
12.52,161
12.73,143
12.94,168
13.15,145
13.36,183
13.57,124
13.78,141
13.99,143
14.2,162
14.41,184
14.62,128
14.83,143
15.04,153
15.25,145
15.46,150
15.67,159
15.88,146
16.09,143
16.3,146
16.51,144
16.72,146
16.93,131
17.14,129
17.35,148
17.56,142
17.77,147
17.98,158
18.19,129
18.4,122
18.61,136
18.82,144
19.03,143
19.24,132
19.45,136
19.66,146
19.87,134
20.08,143
20.29,142
20.5,151
20.71,122
20.92,141
21.13,142
21.34,144
21.55,164
21.76,187
21.97,229
22.18,414
22.39,842
22.6,728
22.81,259
23.02,185
23.23,178
23.44,145
23.65,137
23.86,140
24.07,102
24.28,140
24.49,108
24.7,125
24.91,114
25.12,113
25.33,116
25.54,142
25.75,142
25.96,134
26.17,124
26.38,125
26.59,147
26.8,151
27.01,160
27.22,160
27.43,179
27.64,230
27.85,326
28.06,647
28.27,1488
28.48,1707
28.69,659
28.9,269
29.11,201
29.32,139
29.53,144
29.74,148
29.95,141
30.16,115
30.37,91
30.58,105
30.79,102
31,115
31.21,103
31.42,100
31.63,98
31.84,123
32.05,81
32.26,104
32.47,91
32.68,98
32.89,103
33.1,98
33.31,91
33.52,102
33.73,98
33.94,116
34.15,105
34.36,128
34.57,149
34.78,205
34.99,341
35.2,541
35.41,401
35.62,212
35.83,135
36.04,135
36.25,129
36.46,142
36.67,121
36.88,115
37.09,115
37.3,119
37.51,124
37.72,109
37.93,115
38.14,104
38.35,118
38.56,123
38.77,109
38.98,115
39.19,121
39.4,134
39.61,106
39.82,104
40.03,108
40.24,125
40.45,101
40.66,130
40.87,154
41.08,149
41.29,142
41.5,172
41.71,185
41.92,332
42.13,476
42.34,356
42.55,207
42.76,174
42.97,130
43.18,110
43.39,138
43.6,154
43.81,121
44.02,163
44.23,139
44.44,137
44.65,178
44.86,220
45.07,256
45.28,415
45.49,353
45.7,356
45.91,316
46.12,245
46.33,236
46.54,259
46.75,391
46.96,347
47.17,222
47.38,158
47.59,122
47.8,105
48.01,114
48.22,98
48.43,89
48.64,105
48.85,83
49.06,104
49.27,87
49.48,76
49.69,74
49.9,78
50.11,81
50.32,71
50.53,70
50.74,88
50.95,76
51.16,86
51.37,66
51.58,75
51.79,71
52,72
52.21,68
52.42,75
52.63,76
52.84,69
53.05,73
53.26,56
53.47,66
53.68,70
53.89,64
54.1,72
54.31,71
54.52,90
54.73,88
54.94,98
55.15,118
55.36,124
55.57,93
55.78,171
55.99,195
56.2,169
56.41,142
56.62,91
56.83,86
57.04,74
57.25,81
57.46,57
57.67,80
57.88,60
58.09,82
58.3,99
58.51,137
58.72,140
58.93,179
59.14,176
59.35,112
59.56,112
59.77,99
59.98,84
60.19,79
60.4,76
60.61,76
60.82,61
61.03,66
61.24,74
61.45,74
61.66,91
61.87,100
62.08,83
62.29,88
62.5,81
62.71,86
62.92,102
63.13,110
63.34,92
63.55,101
63.76,85
63.97,77
64.18,67
64.39,49
64.6,69
64.81,76
65.02,86
65.23,78
65.44,73
65.65,75
65.86,67
66.07,76
66.28,74
66.49,74
66.7,95
66.91,79
67.12,99
67.33,78
67.54,87
67.75,79
67.96,78
68.17,75
68.38,76
68.59,90
68.8,75
69.01,87
69.22,95
69.43,80
69.64,86
69.85,84
70,112
,