File: Fig 2/Fig2_XRD_balcite_3mo.csv
Bragg_angle,Intensity
\circ,a.u.
10,90
10.21,86
10.42,79
10.63,62
10.84,77
11.05,71
11.26,78
11.47,69
11.68,73
11.89,59
12.1,72
12.31,72
12.52,76
12.73,84
12.94,60
13.15,69
13.36,76
13.57,63
13.78,86
13.99,58
14.2,63
14.41,67
14.62,65
14.83,71
15.04,79
15.25,71
15.46,74
15.67,61
15.88,66
16.09,70
16.3,66
16.51,60
16.72,63
16.93,63
17.14,62
17.35,54
17.56,54
17.77,64
17.98,61
18.19,56
18.4,56
18.61,57
18.82,62
19.03,60
19.24,64
19.45,76
19.66,133
19.87,84
20.08,94
20.29,69
20.5,57
20.71,63
20.92,55
21.13,58
21.34,75
21.55,61
21.76,81
21.97,80
22.18,143
22.39,754
22.6,208
22.81,105
23.02,95
23.23,73
23.44,90
23.65,100
23.86,158
24.07,714
24.28,383
24.49,526
24.7,89
24.91,78
25.12,61
25.33,60
25.54,69
25.75,56
25.96,58
26.17,61
26.38,53
26.59,61
26.8,58
27.01,62
27.22,50
27.43,63
27.64,74
27.85,144
28.06,244
28.27,1218
28.48,482
28.69,238
28.9,111
29.11,164
29.32,195
29.53,95
29.74,101
29.95,83
30.16,49
30.37,49
30.58,41
30.79,49
31,52
31.21,65
31.42,50
31.63,57
31.84,53
32.05,45
32.26,45
32.47,57
32.68,53
32.89,49
33.1,53
33.31,64
33.52,88
33.73,68
33.94,116
34.15,126
34.36,184
34.57,241
34.78,254
34.99,233
35.2,286
35.41,115
35.62,91
35.83,110
36.04,65
36.25,64
36.46,52
36.67,46
36.88,55
37.09,44
37.3,42
37.51,54
37.72,57
37.93,47
38.14,67
38.35,57
38.56,54
38.77,40
38.98,63
39.19,57
39.4,69
39.61,61
39.82,75
40.03,73
40.24,59
40.45,70
40.66,62
40.87,66
41.08,64
41.29,76
41.5,70
41.71,92
41.92,182
42.13,315
42.34,241
42.55,135
42.76,95
42.97,141
43.18,121
43.39,91
43.6,66
43.81,58
44.02,66
44.23,66
44.44,97
44.65,110
44.86,127
45.07,234
45.28,256
45.49,158
45.7,202
45.91,131
46.12,90
46.33,97
46.54,155
46.75,256
46.96,192
47.17,242
47.38,169
47.59,115
47.8,81
48.01,65
48.22,84
48.43,49
48.64,47
48.85,44
49.06,41
49.27,43
49.48,36
49.69,50
49.9,52
50.11,58
50.32,47
50.53,26
50.74,42
50.95,34
51.16,24
51.37,26
51.58,26
51.79,35
52,42
52.21,37
52.42,34
52.63,32
52.84,36
53.05,40
53.26,25
53.47,38
53.68,35
53.89,39
54.1,44
54.31,34
54.52,40
54.73,37
54.94,59
55.15,65
55.36,65
55.57,68
55.78,92
55.99,124
56.2,98
56.41,72
56.62,61
56.83,59
57.04,53
57.25,50
57.46,41
57.67,45
57.88,38
58.09,44
58.3,48
58.51,57
58.72,66
58.93,103
59.14,61
59.35,69
59.56,56
59.77,60
59.98,48
60.19,36
60.4,48
60.61,44
60.82,48
61.03,46
61.24,43
61.45,51
61.66,60
61.87,55
62.08,62
62.29,54
62.5,50
62.71,42
62.92,67
63.13,69
63.34,51
63.55,45
63.76,42
63.97,35
64.18,34
64.39,52
64.6,39
64.81,45
65.02,56
65.23,48
65.44,35
65.65,41
65.86,46
66.07,33
66.28,31
66.49,37
66.7,42
66.91,40
67.12,47
67.33,40
67.54,42
67.75,41
67.96,41
68.17,36
68.38,49
68.59,74
68.8,62
69.01,59
69.22,51
69.43,62
69.64,52
69.85,56
70.06,73
70.27,79
70.36,61