File: Fig S2/FigS2_C_XRD_ACBC_x37.csv
Bragg_angle,Intensity
\circ,a.u.
5,361
5.3,343
5.6,329
5.9,300
6.2,344
6.5,314
6.8,321
7.1,259
7.4,284
7.7,283
8,277
8.3,241
8.6,262
8.9,260
9.2,369
9.5,447
9.8,450
10.1,455
10.4,353
10.7,241
11,231
11.3,216
11.6,226
11.9,209
12.2,216
12.5,205
12.8,197
13.1,194
13.4,211
13.7,178
14,200
14.3,210
14.6,199
14.9,196
15.2,204
15.5,215
15.8,207
16.1,214
16.4,196
16.7,211
17,169
17.3,198
17.6,151
17.9,191
18.2,195
18.5,166
18.8,175
19.1,171
19.4,204
19.7,188
20,187
20.3,216
20.6,197
20.9,183
21.2,177
21.5,207
21.8,197
22.1,291
22.4,577
22.7,1212
23,385
23.3,247
23.6,181
23.9,154
24.2,179
24.5,196
24.8,211
25.1,183
25.4,171
25.7,164
26,210
26.3,170
26.6,169
26.9,193
27.2,226
27.5,209
27.8,248
28.1,350
28.4,953
28.7,3125
29,806
29.3,271
29.6,218
29.9,178
30.2,193
30.5,195
30.8,155
31.1,142
31.4,175
31.7,159
32,130
32.3,140
32.6,138
32.9,183
33.2,147
33.5,149
33.8,144
34.1,171
34.4,159
34.7,177
35,222
35.3,568
35.6,609
35.9,268
36.2,198
36.5,161
36.8,186
37.1,176
37.4,157
37.7,154
38,152
38.3,171
38.6,147
38.9,172
39.2,172
39.5,168
39.8,147
40.1,153
40.4,170
40.7,183
41,161
41.3,168
41.6,184
41.9,232
42.2,393
42.5,729
42.8,341
43.1,201
43.4,189
43.7,188
44,181
44.3,179
44.6,170
44.9,200
45.2,207
45.5,294
45.8,504
46.1,660
46.4,448
46.7,306
47,341
47.3,540
47.6,363
47.9,165
48.2,162
48.5,132
48.8,123
49.1,140
49.4,121
49.7,116
50,125
50.3,126
50.6,115
50.9,101
51.2,91
51.5,100
51.8,92
52.1,76
52.4,94
52.7,87
53,88
53.3,86
53.6,76
53.9,76
54.2,88
54.5,94
54.8,81
55.1,90
55.4,126
55.7,150
56,186
56.3,244
56.6,247
56.9,154
57.2,110
57.5,121
57.8,88
58.1,88
58.4,115
58.7,115
59,125
59.3,233
59.6,248
59.9,163
60.2,131
60.5,117
60.8,102
61.1,105
61.4,98
61.7,103
62,84
62.3,116
62.6,124
62.9,140
63.2,141
63.5,138
63.8,135
64.1,130
64.4,131
64.7,105
65,103
65.3,103
65.6,107
65.9,117
66.2,95
66.5,112
66.8,110
67.1,91
67.4,98
67.7,107
68,110
68.3,120
68.6,95
68.9,94
69.2,97
69.5,108
69.8,114
70.1,117
70.4,126
70.7,138
71,143
71.3,133
71.6,134
71.9,155
72.2,137
72.5,133
72.8,129
73.1,96
73.4,102
73.7,113
74,117
74.3,114
74.6,156
74.9,124
75.2,129
75.5,95
75.8,70
76.1,98
76.4,79
76.7,88
77,86
77.3,88
77.6,90
77.9,89
78.2,92
78.5,94
78.8,86
79.1,116
79.4,111
79.7,108
80,86