File: Fig S2/FigS2_C_XRD_ACBC_x25.csv
Bragg_angle,Intensity
\circ,a.u.
5,364
5.3,351
5.6,304
5.9,327
6.2,279
6.5,323
6.8,279
7.1,224
7.4,219
7.7,222
8,243
8.3,227
8.6,205
8.9,220
9.2,269
9.5,318
9.8,325
10.1,307
10.4,276
10.7,201
11,205
11.3,181
11.6,178
11.9,168
12.2,170
12.5,157
12.8,181
13.1,167
13.4,163
13.7,204
14,179
14.3,167
14.6,169
14.9,184
15.2,201
15.5,211
15.8,159
16.1,174
16.4,190
16.7,157
17,174
17.3,161
17.6,180
17.9,171
18.2,161
18.5,168
18.8,169
19.1,156
19.4,163
19.7,158
20,145
20.3,173
20.6,177
20.9,172
21.2,216
21.5,179
21.8,172
22.1,199
22.4,307
22.7,701
23,510
23.3,217
23.6,157
23.9,156
24.2,158
24.5,186
24.8,199
25.1,257
25.4,174
25.7,159
26,159
26.3,141
26.6,166
26.9,236
27.2,398
27.5,211
27.8,197
28.1,252
28.4,565
28.7,1233
29,2017
29.3,365
29.6,192
29.9,164
30.2,158
30.5,156
30.8,134
31.1,122
31.4,148
31.7,133
32,117
32.3,142
32.6,212
32.9,482
33.2,183
33.5,123
33.8,131
34.1,137
34.4,144
34.7,140
35,167
35.3,297
35.6,500
35.9,344
36.2,191
36.5,149
36.8,148
37.1,146
37.4,142
37.7,140
38,144
38.3,130
38.6,151
38.9,151
39.2,194
39.5,161
39.8,134
40.1,177
40.4,151
40.7,171
41,151
41.3,135
41.6,152
41.9,186
42.2,218
42.5,378
42.8,538
43.1,248
43.4,166
43.7,206
44,308
44.3,170
44.6,154
44.9,156
45.2,186
45.5,183
45.8,230
46.1,367
46.4,529
46.7,312
47,271
47.3,301
47.6,417
47.9,298
48.2,141
48.5,137
48.8,146
49.1,195
49.4,143
49.7,122
50,236
50.3,238
50.6,104
50.9,106
51.2,97
51.5,96
51.8,102
52.1,87
52.4,83
52.7,81
53,87
53.3,69
53.6,74
53.9,91
54.2,95
54.5,73
54.8,89
55.1,106
55.4,112
55.7,143
56,161
56.3,171
56.6,210
56.9,187
57.2,120
57.5,96
57.8,85
58.1,98
58.4,89
58.7,79
59,99
59.3,126
59.6,175
59.9,206
60.2,153
60.5,94
60.8,100
61.1,95
61.4,70
61.7,96
62,90
62.3,79
62.6,102
62.9,104
63.2,110
63.5,118
63.8,132
64.1,124
64.4,110
64.7,96
65,91
65.3,87
65.6,94
65.9,89
66.2,83
66.5,73
66.8,65
67.1,90
67.4,75
67.7,70
68,115
68.3,115
68.6,96
68.9,104
69.2,73
69.5,86
69.8,92
70.1,87
70.4,71
70.7,122
71,100
71.3,119
71.6,150
71.9,139
72.2,118
72.5,100
72.8,109
73.1,105
73.4,97
73.7,100
74,102
74.3,90
74.6,105
74.9,109
75.2,120
75.5,103
75.8,87
76.1,92
76.4,87
76.7,74
77,65
77.3,61
77.6,81
77.9,71
78.2,83
78.5,65
78.8,69
79.1,75
79.4,86
79.7,111
80,84