File: Fig S2/FigS2_A_XRD_mixture_x75.csv
Bragg_angle,Intensity
\circ,a.u.
5,237
5.24,210
5.48,221
5.72,207
5.96,167
6.2,167
6.44,147
6.68,163
6.92,151
7.16,142
7.4,138
7.64,137
7.88,166
8.12,140
8.36,111
8.6,125
8.84,137
9.08,156
9.32,164
9.56,202
9.8,209
10.04,205
10.28,172
10.52,140
10.76,101
11,120
11.24,104
11.48,103
11.72,120
11.96,132
12.2,114
12.44,119
12.68,103
12.92,115
13.16,83
13.4,103
13.64,92
13.88,94
14.12,107
14.36,112
14.6,92
14.84,102
15.08,122
15.32,98
15.56,117
15.8,105
16.04,92
16.28,103
16.52,94
16.76,97
17,88
17.24,96
17.48,89
17.72,78
17.96,92
18.2,91
18.44,67
18.68,84
18.92,81
19.16,124
19.4,197
19.64,791
19.88,268
20.12,259
20.36,89
20.6,95
20.84,75
21.08,98
21.32,67
21.56,97
21.8,115
22.04,98
22.28,73
22.52,88
22.76,77
23,84
23.24,90
23.48,114
23.72,230
23.96,1819
24.2,1879
24.44,1656
24.68,239
24.92,126
25.16,108
25.4,98
25.64,93
25.88,77
26.12,84
26.36,80
26.6,79
26.84,69
27.08,78
27.32,68
27.56,77
27.8,215
28.04,114
28.28,73
28.52,76
28.76,75
29,65
29.24,83
29.48,139
29.72,162
29.96,82
30.2,64
30.44,71
30.68,66
30.92,64
31.16,66
31.4,67
31.64,62
31.88,69
32.12,65
32.36,62
32.6,100
32.84,81
33.08,81
33.32,101
33.56,147
33.8,428
34.04,620
34.28,981
34.52,896
34.76,1527
35,209
35.24,110
35.48,91
35.72,69
35.96,64
36.2,85
36.44,63
36.68,60
36.92,63
37.16,60
37.4,52
37.64,69
37.88,70
38.12,74
38.36,78
38.6,50
38.84,54
39.08,49
39.32,100
39.56,360
39.8,247
40.04,106
40.28,92
40.52,147
40.76,131
41,80
41.24,73
41.48,75
41.72,98
41.96,321
42.2,1436
42.44,315
42.68,224
42.92,362
43.16,486
43.4,139
43.64,86
43.88,96
44.12,124
44.36,336
44.6,274
44.84,352
45.08,725
45.32,120
45.56,71
45.8,61
46.04,58
46.28,69
46.52,57
46.76,120
47,475
47.24,215
47.48,65
47.72,75
47.96,58
48.2,66
48.44,37
48.68,96
48.92,66
49.16,149
49.4,75
49.64,56
49.88,90
50.12,63
50.36,54
50.6,61
50.84,47
51.08,56
51.32,43
51.56,46
51.8,38
52.04,47
52.28,45
52.52,61
52.76,90
53,89
53.24,101
53.48,90
53.72,120
53.96,130
54.2,87
54.44,128
54.68,132
54.92,252
55.16,169
55.4,166
55.64,197
55.88,348
56.12,202
56.36,314
56.6,173
56.84,73
57.08,47
57.32,68
57.56,80
57.8,47
58.04,57
58.28,55
58.52,52
58.76,50
59,52
59.24,148
59.48,87
59.72,58
59.96,88
60.2,62
60.44,57
60.68,99
60.92,202
61.16,267
61.4,148
61.64,131
61.88,88
62.12,119
62.36,100
62.6,111
62.84,95
63.08,53
63.32,45
63.56,42
63.8,49
64.04,50
64.28,43
64.52,48
64.76,46
65,58
65.24,39
65.48,43
65.72,51
65.96,53
66.2,46
66.44,44
66.68,47
66.92,38
67.16,38
67.4,56
67.64,46
67.88,55
68.12,114
68.36,273
68.6,180
68.84,171
69.08,104
69.32,93
69.56,87
69.8,206
70.01,161
,