File: Fig S2/FigS2_A_XRD_mixture_x25.csv
Bragg_angle,Intensity
\circ,a.u.
5,242
5.24,297
5.48,225
5.72,234
5.96,212
6.2,186
6.44,190
6.68,201
6.92,172
7.16,167
7.4,163
7.64,190
7.88,164
8.12,199
8.36,180
8.6,168
8.84,174
9.08,198
9.32,277
9.56,271
9.8,263
10.04,262
10.28,233
10.52,205
10.76,145
11,146
11.24,124
11.48,131
11.72,154
11.96,145
12.2,134
12.44,146
12.68,111
12.92,128
13.16,132
13.4,121
13.64,130
13.88,113
14.12,114
14.36,124
14.6,116
14.84,111
15.08,118
15.32,103
15.56,109
15.8,119
16.04,98
16.28,106
16.52,100
16.76,95
17,95
17.24,96
17.48,91
17.72,94
17.96,122
18.2,90
18.44,89
18.68,84
18.92,95
19.16,110
19.4,164
19.64,218
19.88,172
20.12,112
20.36,88
20.6,80
20.84,79
21.08,89
21.32,74
21.56,78
21.8,81
22.04,62
22.28,74
22.52,66
22.76,75
23,160
23.24,164
23.48,123
23.72,288
23.96,2677
24.2,1048
24.44,657
24.68,129
24.92,122
25.16,97
25.4,94
25.64,97
25.88,72
26.12,70
26.36,77
26.6,135
26.84,68
27.08,63
27.32,63
27.56,80
27.8,464
28.04,74
28.28,79
28.52,87
28.76,72
29,86
29.24,245
29.48,6436
29.72,244
29.96,92
30.2,86
30.44,63
30.68,74
30.92,80
31.16,71
31.4,85
31.64,105
31.88,59
32.12,66
32.36,76
32.6,96
32.84,63
33.08,85
33.32,80
33.56,100
33.8,286
34.04,326
34.28,656
34.52,525
34.76,459
35,89
35.24,67
35.48,54
35.72,62
35.96,197
36.2,129
36.44,58
36.68,53
36.92,52
37.16,69
37.4,47
37.64,51
37.88,60
38.12,67
38.36,49
38.6,54
38.84,50
39.08,62
39.32,97
39.56,642
39.8,103
40.04,78
40.28,72
40.52,90
40.76,62
41,54
41.24,60
41.48,65
41.72,66
41.96,291
42.2,530
42.44,166
42.68,166
42.92,240
43.16,430
43.4,231
43.64,81
43.88,74
44.12,108
44.36,270
44.6,225
44.84,341
45.08,371
45.32,69
45.56,48
45.8,70
46.04,61
46.28,55
46.52,67
46.76,200
47,504
47.24,303
47.48,224
47.72,501
47.96,62
48.2,62
48.44,148
48.68,554
48.92,94
49.16,105
49.4,59
49.64,61
49.88,85
50.12,50
50.36,49
50.6,53
50.84,46
51.08,48
51.32,37
51.56,47
51.8,39
52.04,42
52.28,51
52.52,47
52.76,77
53,75
53.24,47
53.48,63
53.72,77
53.96,56
54.2,47
54.44,55
54.68,97
54.92,140
55.16,93
55.4,93
55.64,176
55.88,162
56.12,129
56.36,168
56.6,201
56.84,73
57.08,44
57.32,104
57.56,168
57.8,38
58.04,53
58.28,75
58.52,42
58.76,44
59,51
59.24,100
59.48,58
59.72,56
59.96,58
60.2,40
60.44,56
60.68,175
60.92,253
61.16,183
61.4,205
61.64,147
61.88,60
62.12,75
62.36,66
62.6,67
62.84,59
63.08,105
63.32,81
63.56,29
63.8,35
64.04,41
64.28,41
64.52,40
64.76,214
65,54
65.24,29
65.48,33
65.72,167
65.96,43
66.2,36
66.44,34
66.68,34
66.92,39
67.16,37
67.4,42
67.64,56
67.88,41
68.12,119
68.36,163
68.6,127
68.84,122
69.08,58
69.32,66
69.56,76
69.8,142
70.01,104
,