File: Fig S2/FigS2_A_XRD_mixture_x625.csv
Bragg_angle,Intensity
\circ,a.u.
5,281
5.24,303
5.48,276
5.72,251
5.96,232
6.2,194
6.44,184
6.68,184
6.92,172
7.16,159
7.4,177
7.64,194
7.88,204
8.12,174
8.36,158
8.6,170
8.84,200
9.08,242
9.32,316
9.56,317
9.8,316
10.04,321
10.28,265
10.52,203
10.76,145
11,141
11.24,164
11.48,142
11.72,159
11.96,157
12.2,152
12.44,148
12.68,141
12.92,149
13.16,129
13.4,119
13.64,127
13.88,140
14.12,136
14.36,111
14.6,132
14.84,155
15.08,129
15.32,127
15.56,113
15.8,131
16.04,105
16.28,103
16.52,124
16.76,112
17,113
17.24,104
17.48,108
17.72,96
17.96,91
18.2,92
18.44,95
18.68,98
18.92,101
19.16,129
19.4,332
19.64,377
19.88,263
20.12,119
20.36,107
20.6,92
20.84,98
21.08,76
21.32,82
21.56,114
21.8,90
22.04,92
22.28,82
22.52,81
22.76,82
23,89
23.24,114
23.48,137
23.72,403
23.96,4579
24.2,1727
24.44,915
24.68,170
24.92,142
25.16,106
25.4,94
25.64,76
25.88,85
26.12,74
26.36,79
26.6,102
26.84,83
27.08,78
27.32,81
27.56,85
27.8,588
28.04,91
28.28,60
28.52,57
28.76,76
29,56
29.24,102
29.48,789
29.72,136
29.96,83
30.2,79
30.44,75
30.68,67
30.92,61
31.16,80
31.4,58
31.64,71
31.88,55
32.12,72
32.36,79
32.6,106
32.84,69
33.08,83
33.32,131
33.56,172
33.8,519
34.04,593
34.28,883
34.52,958
34.76,781
35,124
35.24,70
35.48,86
35.72,73
35.96,91
36.2,71
36.44,66
36.68,69
36.92,66
37.16,61
37.4,64
37.64,70
37.88,75
38.12,50
38.36,48
38.6,72
38.84,69
39.08,76
39.32,102
39.56,489
39.8,135
40.04,94
40.28,97
40.52,167
40.76,110
41,62
41.24,66
41.48,80
41.72,125
41.96,583
42.2,914
42.44,270
42.68,222
42.92,415
43.16,343
43.4,120
43.64,85
43.88,97
44.12,155
44.36,385
44.6,288
44.84,574
45.08,477
45.32,88
45.56,50
45.8,71
46.04,61
46.28,73
46.52,71
46.76,271
47,620
47.24,188
47.48,108
47.72,108
47.96,52
48.2,67
48.44,73
48.68,156
48.92,122
49.16,133
49.4,80
49.64,89
49.88,106
50.12,72
50.36,57
50.6,45
50.84,35
51.08,50
51.32,50
51.56,50
51.8,42
52.04,45
52.28,63
52.52,57
52.76,103
53,81
53.24,104
53.48,64
53.72,133
53.96,85
54.2,84
54.44,99
54.68,163
54.92,269
55.16,139
55.4,147
55.64,240
55.88,277
56.12,168
56.36,269
56.6,141
56.84,59
57.08,63
57.32,108
57.56,70
57.8,49
58.04,56
58.28,59
58.52,60
58.76,45
59,78
59.24,146
59.48,71
59.72,63
59.96,106
60.2,73
60.44,60
60.68,139
60.92,248
61.16,245
61.4,169
61.64,113
61.88,94
62.12,98
62.36,98
62.6,102
62.84,79
63.08,68
63.32,36
63.56,43
63.8,49
64.04,42
64.28,44
64.52,36
64.76,69
65,53
65.24,46
65.48,49
65.72,48
65.96,46
66.2,34
66.44,37
66.68,48
66.92,58
67.16,42
67.4,51
67.64,43
67.88,69
68.12,202
68.36,242
68.6,187
68.84,139
69.08,72
69.32,72
69.56,114
69.8,221
70.01,156
,