File: Fig S2/FigS2_A_XRD_mixture_x375.csv
Bragg_angle,Intensity
\circ,a.u.
5,258
5.24,307
5.48,257
5.72,229
5.96,201
6.2,195
6.44,226
6.68,226
6.92,195
7.16,199
7.4,203
7.64,182
7.88,186
8.12,168
8.36,193
8.6,167
8.84,196
9.08,265
9.32,268
9.56,342
9.8,324
10.04,280
10.28,264
10.52,211
10.76,165
11,150
11.24,137
11.48,132
11.72,136
11.96,165
12.2,140
12.44,124
12.68,144
12.92,151
13.16,127
13.4,119
13.64,130
13.88,118
14.12,117
14.36,116
14.6,134
14.84,144
15.08,145
15.32,130
15.56,101
15.8,123
16.04,112
16.28,118
16.52,108
16.76,104
17,101
17.24,101
17.48,92
17.72,96
17.96,105
18.2,94
18.44,90
18.68,103
18.92,92
19.16,125
19.4,267
19.64,263
19.88,210
20.12,115
20.36,97
20.6,71
20.84,107
21.08,72
21.32,84
21.56,110
21.8,108
22.04,93
22.28,77
22.52,82
22.76,86
23,104
23.24,143
23.48,145
23.72,417
23.96,4075
24.2,1499
24.44,822
24.68,174
24.92,91
25.16,103
25.4,84
25.64,87
25.88,79
26.12,80
26.36,77
26.6,95
26.84,90
27.08,73
27.32,66
27.56,97
27.8,644
28.04,83
28.28,52
28.52,84
28.76,68
29,82
29.24,174
29.48,2200
29.72,183
29.96,91
30.2,77
30.44,83
30.68,81
30.92,56
31.16,90
31.4,82
31.64,61
31.88,54
32.12,53
32.36,103
32.6,101
32.84,68
33.08,66
33.32,88
33.56,156
33.8,426
34.04,557
34.28,785
34.52,787
34.76,518
35,111
35.24,84
35.48,54
35.72,84
35.96,139
36.2,88
36.44,66
36.68,54
36.92,58
37.16,61
37.4,53
37.64,60
37.88,65
38.12,68
38.36,64
38.6,65
38.84,54
39.08,83
39.32,119
39.56,546
39.8,104
40.04,82
40.28,79
40.52,127
40.76,75
41,64
41.24,58
41.48,84
41.72,87
41.96,498
42.2,747
42.44,192
42.68,197
42.92,343
43.16,450
43.4,158
43.64,77
43.88,92
44.12,139
44.36,313
44.6,268
44.84,557
45.08,450
45.32,108
45.56,61
45.8,73
46.04,62
46.28,69
46.52,69
46.76,292
47,628
47.24,230
47.48,201
47.72,227
47.96,62
48.2,81
48.44,111
48.68,292
48.92,132
49.16,102
49.4,52
49.64,65
49.88,101
50.12,61
50.36,51
50.6,42
50.84,45
51.08,30
51.32,52
51.56,43
51.8,43
52.04,44
52.28,45
52.52,55
52.76,83
53,76
53.24,71
53.48,66
53.72,108
53.96,78
54.2,79
54.44,106
54.68,144
54.92,214
55.16,110
55.4,128
55.64,200
55.88,211
56.12,154
56.36,218
56.6,145
56.84,78
57.08,55
57.32,115
57.56,135
57.8,57
58.04,61
58.28,70
58.52,61
58.76,59
59,82
59.24,122
59.48,71
59.72,64
59.96,75
60.2,52
60.44,63
60.68,159
60.92,242
61.16,222
61.4,202
61.64,125
61.88,79
62.12,105
62.36,71
62.6,87
62.84,56
63.08,82
63.32,45
63.56,46
63.8,23
64.04,44
64.28,43
64.52,37
64.76,128
65,48
65.24,43
65.48,33
65.72,75
65.96,39
66.2,46
66.44,37
66.68,32
66.92,40
67.16,41
67.4,44
67.64,45
67.88,63
68.12,169
68.36,205
68.6,198
68.84,153
69.08,76
69.32,92
69.56,135
69.8,191
70.01,148
,