File: Fig S2/FigS2_XRD_witherite_ref.csv
Bragg_angle,Intensity
\circ,a.u.
5,566
5.3,625
5.6,554
5.9,503
6.2,526
6.5,491
6.8,469
7.1,526
7.4,538
7.7,500
8,499
8.3,473
8.6,523
8.9,527
9.2,526
9.5,585
9.8,552
10.1,543
10.4,563
10.7,493
11,512
11.3,472
11.6,501
11.9,523
12.2,477
12.5,506
12.8,465
13.1,480
13.4,432
13.7,519
14,432
14.3,460
14.6,428
14.9,418
15.2,450
15.5,374
15.8,413
16.1,336
16.4,377
16.7,374
17,385
17.3,355
17.6,344
17.9,330
18.2,383
18.5,362
18.8,388
19.1,380
19.4,1224
19.7,427
20,610
20.3,376
20.6,321
20.9,285
21.2,295
21.5,386
21.8,304
22.1,314
22.4,287
22.7,358
23,336
23.3,363
23.6,681
23.9,6936
24.2,2756
24.5,498
24.8,370
25.1,340
25.4,304
25.7,361
26,325
26.3,303
26.6,332
26.9,302
27.2,309
27.5,381
27.8,1122
28.1,290
28.4,488
28.7,348
29,276
29.3,319
29.6,675
29.9,257
30.2,240
30.5,263
30.8,231
31.1,227
31.4,232
31.7,257
32,215
32.3,271
32.6,363
32.9,266
33.2,271
33.5,312
33.8,707
34.1,2399
34.4,2284
34.7,1055
35,241
35.3,206
35.6,218
35.9,174
36.2,199
36.5,209
36.8,183
37.1,178
37.4,220
37.7,183
38,204
38.3,197
38.6,226
38.9,204
39.2,239
39.5,713
39.8,215
40.1,193
40.4,257
40.7,273
41,206
41.3,177
41.6,213
41.9,777
42.2,476
42.5,261
42.8,327
43.1,772
43.4,196
43.7,209
44,333
44.3,816
44.6,303
44.9,1822
45.2,275
45.5,184
45.8,169
46.1,192
46.4,195
46.7,836
47,1386
47.3,243
47.6,177
47.9,187
48.2,169
48.5,178
48.8,199
49.1,239
49.4,166
49.7,256
50,205
50.3,156
50.6,142
50.9,149
51.2,132
51.5,144
51.8,130
52.1,173
52.4,137
52.7,212
53,144
53.3,182
53.6,170
53.9,166
54.2,161
54.5,212
54.8,411
55.1,178
55.4,160
55.7,538
56,206
56.3,487
56.6,181
56.9,140
57.2,238
57.5,176
57.8,178
58.1,161
58.4,174
58.7,135
59,201
59.3,260
59.6,126
59.9,277
60.2,167
60.5,216
60.8,370
61.1,578
61.4,424
61.7,218
62,200
62.3,224
62.6,278
62.9,156
63.2,131
63.5,136
63.8,111
64.1,128
64.4,150
64.7,118
65,111
65.3,153
65.6,127
65.9,118
66.2,124
66.5,124
66.8,105
67.1,134
67.4,127
67.7,142
68,208
68.3,429
68.6,414
68.9,409
69.2,164
69.5,224
69.8,342
70.1,168
70.4,233
70.7,373
71,434
71.3,273
71.6,145
71.9,162
72.2,114
72.5,188
72.8,153
73.1,233
73.4,143
73.7,119
74,110
74.3,119
74.6,106
74.9,120
75.2,106
75.5,116
75.8,133
76.1,166
76.4,175
76.7,182
77,349
77.3,298
77.6,240
77.9,151
78.2,143
78.5,142
78.8,305
79.1,175
79.4,109
79.7,165
80,195
80.3,119
80.6,125
80.9,105
81.2,147
81.5,216
81.8,176
82.1,114
82.4,178
82.7,152
83,146
83.3,118
83.6,123
83.9,124
84.2,97
84.5,90
84.8,105
85.1,110
85.4,98
85.7,109
86,118
86.3,109
86.6,227
86.9,387
87.2,236
87.5,173
87.8,146
88.1,133
88.4,322
88.7,286
89,129
89.3,155
89.6,217
89.9,186
90,171