File: Fig S2/FigS2_C_XRD_ACBC_x42.csv
Bragg_angle,Intensity
\circ,a.u.
5,310
5.3,310
5.6,223
5.9,241
6.2,276
6.5,287
6.8,284
7.1,210
7.4,217
7.7,210
8,239
8.3,197
8.6,190
8.9,184
9.2,214
9.5,270
9.8,295
10.1,286
10.4,243
10.7,203
11,194
11.3,177
11.6,171
11.9,169
12.2,208
12.5,191
12.8,170
13.1,170
13.4,186
13.7,170
14,198
14.3,191
14.6,163
14.9,169
15.2,198
15.5,196
15.8,191
16.1,189
16.4,195
16.7,151
17,182
17.3,188
17.6,171
17.9,198
18.2,190
18.5,179
18.8,181
19.1,197
19.4,199
19.7,188
20,192
20.3,201
20.6,175
20.9,159
21.2,194
21.5,191
21.8,235
22.1,293
22.4,649
22.7,1085
23,320
23.3,219
23.6,193
23.9,186
24.2,177
24.5,172
24.8,185
25.1,182
25.4,158
25.7,201
26,210
26.3,165
26.6,177
26.9,170
27.2,168
27.5,215
27.8,267
28.1,463
28.4,1709
28.7,1965
29,525
29.3,239
29.6,184
29.9,177
30.2,213
30.5,171
30.8,134
31.1,134
31.4,135
31.7,118
32,128
32.3,147
32.6,145
32.9,151
33.2,135
33.5,123
33.8,134
34.1,159
34.4,172
34.7,175
35,296
35.3,679
35.6,492
35.9,226
36.2,187
36.5,195
36.8,145
37.1,161
37.4,186
37.7,140
38,161
38.3,148
38.6,159
38.9,149
39.2,134
39.5,172
39.8,143
40.1,163
40.4,169
40.7,156
41,162
41.3,173
41.6,194
41.9,270
42.2,552
42.5,509
42.8,249
43.1,205
43.4,172
43.7,180
44,186
44.3,177
44.6,184
44.9,215
45.2,297
45.5,486
45.8,551
46.1,444
46.4,292
46.7,306
47,572
47.3,392
47.6,205
47.9,171
48.2,160
48.5,127
48.8,113
49.1,137
49.4,119
49.7,115
50,109
50.3,104
50.6,99
50.9,102
51.2,105
51.5,88
51.8,103
52.1,89
52.4,96
52.7,96
53,89
53.3,100
53.6,97
53.9,99
54.2,79
54.5,106
54.8,94
55.1,111
55.4,142
55.7,187
56,210
56.3,264
56.6,184
56.9,114
57.2,111
57.5,92
57.8,108
58.1,107
58.4,122
58.7,143
59,205
59.3,226
59.6,178
59.9,99
60.2,87
60.5,92
60.8,104
61.1,126
61.4,99
61.7,94
62,103
62.3,102
62.6,131
62.9,112
63.2,134
63.5,142
63.8,105
64.1,113
64.4,109
64.7,103
65,116
65.3,96
65.6,86
65.9,97
66.2,87
66.5,116
66.8,99
67.1,94
67.4,126
67.7,119
68,96
68.3,95
68.6,100
68.9,99
69.2,103
69.5,103
69.8,108
70.1,98
70.4,151
70.7,163
71,155
71.3,150
71.6,179
71.9,107
72.2,111
72.5,116
72.8,108
73.1,106
73.4,111
73.7,125
74,119
74.3,136
74.6,129
74.9,132
75.2,96
75.5,97
75.8,88
76.1,73
76.4,83
76.7,71
77,86
77.3,81
77.6,86
77.9,97
78.2,118
78.5,116
78.8,104
79.1,113
79.4,97
79.7,100
80,91