File: Fig S2/FigS2_XRD_vaterite_ref.csv
Bragg_angle,Intensity
\circ,a.u.
0,0
0.2675,0
0.535,0
0.8025,0
1.07,0
1.3375,0
1.605,0
1.8725,0
2.14,0
2.4075,0
2.675,0
2.9425,0
3.21,0
3.4775,0
3.745,0
4.0125,0
4.28,0
4.5475,0
4.815,0
5.0825,0
5.35,0
5.6175,0
5.885,0
6.1525,0
6.42,0
6.6875,0
6.955,0
7.2225,0
7.49,0
7.7575,0
8.025,0
8.2925,0
8.56,0
8.8275,0
9.095,0
9.3625,0
9.63,0
9.8975,0
10.165,0
10.4325,0
10.7,0
10.9675,0
11.235,0
11.5025,0
11.77,0
12.0375,0
12.305,0
12.5725,0
12.84,0
13.1075,0
13.375,0
13.6425,0
13.91,1.1748e-05
14.1775,1.7867e-07
14.445,1.5975
14.7125,0
14.98,0
15.2475,0
15.515,3.1108e-05
15.7825,0.0012432
16.05,0
16.3175,0
16.585,0
16.8525,0
17.12,0
17.3875,2.0605e-05
17.655,0.00010122
17.9225,0
18.19,0
18.4575,0
18.725,0
18.9925,0
19.26,0
19.5275,0
19.795,0.5761
20.0625,6.2646e-06
20.33,0
20.5975,0
20.865,0.00089423
21.1325,1.4808
21.4,0
21.6675,0
21.935,0
22.2025,0
22.47,2.7846
22.7375,4.2253e-07
23.005,0
23.2725,0
23.54,0
23.8075,0
24.075,0
24.3425,24.523
24.61,0.46957
24.8775,8.8525e-07
25.145,1.084e-08
25.4125,0.36504
25.68,0
25.9475,0
26.215,0
26.4825,0.6037
26.75,0.84955
27.0175,0
27.285,0
27.5525,0
27.82,0
28.0875,0.0030801
28.355,1.287
28.6225,0.00020457
28.89,8.278e-09
29.1575,0.069942
29.425,0
29.6925,0
29.96,1.5753e-07
30.2275,0.35637
30.495,0
30.7625,0
31.03,0
31.2975,0
31.565,3.0459
31.8325,0.0011886
32.1,0
32.3675,20.885
32.635,0.0019552
32.9025,0
33.17,0
33.4375,8.4059
33.705,0
33.9725,0
34.24,0
34.5075,0
34.775,0.0061425
35.0425,0.04075
35.31,2.5974e-05
35.5775,0.033692
35.845,0
36.1125,0
36.38,0
36.6475,0
36.915,0
37.1825,0
37.45,5.797e-05
37.7175,1.085
37.985,0.0099659
38.2525,1.1781
38.52,0.0021109
38.7875,0
39.055,0.0010141
39.3225,0.0065668
39.59,0
39.8575,0
40.125,6.6316e-05
40.3925,8.2514
40.66,0.00085915
40.9275,0
41.195,0
41.4625,0
41.73,1.2802
41.9975,0.0005463
42.265,0
42.5325,0
42.8,3.6363
43.0675,2.9118
43.335,2.5633e-06
43.6025,0.24494
43.87,0
44.1375,1.6963e-06
44.405,0.0048037
44.6725,0
44.94,0
45.2075,7.2533e-05
45.475,1.1226
45.7425,8.4899e-05
46.01,0.15715
46.2775,0
46.545,0.053627
46.8125,0.02935
47.08,0
47.3475,0
47.615,0.021659
47.8825,2.0473e-05
48.15,0.093917
48.4175,0.27907
48.685,1.3297e-09
48.9525,0.50889
49.22,0
49.4875,0
49.755,0.020064
50.0225,7.8058
50.29,0.00051545
50.5575,0.37143
50.825,0
51.0925,0.0033699
51.36,0.020675
51.6275,0
51.895,4.2651e-08
52.1625,0.063103
52.43,0.077759
52.6975,2.6707
52.965,3.753e-08
53.2325,0.018769
53.5,0.068661
53.7675,0
54.035,0
54.3025,3.1268
54.57,3.4439e-06
54.8375,23.975
55.105,0
55.3725,2.1914
55.64,0.0028359
55.9075,0
56.175,2.1055e-08
56.4425,0.40024
56.71,0.01042
56.9775,0.021771
57.245,0
57.5125,0
57.78,0
58.0475,0
58.315,0.42526
58.5825,5.7476
58.85,1.1703
59.1175,2.5388e-05
59.385,0.0010758
59.6525,0.0091159
59.92,0
60.1875,0.010642
60.455,2.3305
60.7225,4.8487e-07
60.99,0
61.2575,0.00089383
61.525,0.16813
61.7925,0
62.06,9.6315e-06
62.3275,2.9042
62.595,0.00031235
62.8625,0.074792
63.13,0
63.3975,0
63.665,0
63.9325,1.7186e-07
64.2,0.092109
64.4675,0.11868
64.735,1.4226
65.0025,4.0009e-08
65.27,1.1952
65.5375,3.736e-07
65.805,3.0604e-06
66.0725,1.0041
66.34,0.0053358
66.6075,0.00030368
66.875,1.9234e-08
67.1425,1.702
67.41,1.1262e-07
67.6775,5.0117e-07
67.945,8.5485
68.2125,0.0053694
68.48,0.23335
68.7475,0
69.015,3.4147
69.2825,0
69.55,9.3355e-07
69.8175,1.3331
70.085,0.00019966
70.3525,0.00015598
70.62,0.00027655
70.8875,0.1778
71.155,0
71.4225,0.012176
71.69,0.13433
71.9575,8.7356
72.225,0.0051232
72.4925,0.50899
72.76,3.4476e-06
73.0275,0
73.295,1.8069e-05
73.5625,0.36689
73.83,0.00026354
74.0975,0
74.365,0
74.6325,0
74.9,9.4798e-06
75.1675,0.49715
75.435,0.011132
75.7025,0.029412
75.97,0.05537
76.2375,0.10867
76.505,0
76.7725,0.20235
77.04,0.183
77.3075,0
77.575,1.888e-06
77.8425,2.3811
78.11,7.035e-06
78.3775,0
78.645,1.8244
78.9125,0.021643
79.18,0.033258
79.4475,3.2454e-06
79.715,0.26479
79.9825,0
80,0