File: Fig S2/FigS2_B_XRD_calcite_100mM_BaCl2.csv
Bragg_angle,Intensity
\circ,a.u.
9.96,427
10.21,399
10.46,424
10.71,368
10.96,388
11.21,354
11.46,374
11.71,378
11.96,361
12.21,383
12.46,362
12.71,352
12.96,400
13.21,367
13.46,352
13.71,339
13.96,393
14.21,345
14.46,320
14.71,319
14.96,295
15.21,340
15.46,298
15.71,295
15.96,301
16.21,275
16.46,286
16.71,239
16.96,282
17.21,246
17.46,294
17.71,278
17.96,248
18.21,267
18.46,247
18.71,239
18.96,221
19.21,252
19.46,455
19.71,303
19.96,338
20.21,258
20.46,254
20.71,246
20.96,218
21.21,215
21.46,259
21.71,274
21.96,243
22.21,198
22.46,219
22.71,209
22.96,408
23.21,270
23.46,285
23.71,544
23.96,4191
24.21,1379
24.46,2643
24.71,346
24.96,239
25.21,228
25.46,214
25.71,218
25.96,207
26.21,179
26.46,249
26.71,186
26.96,200
27.21,170
27.46,217
27.71,515
27.96,487
28.21,197
28.46,219
28.71,202
28.96,207
29.21,625
29.46,6379
29.71,384
29.96,232
30.21,185
30.46,217
30.71,187
30.96,194
31.21,168
31.46,363
31.71,151
31.96,166
32.21,172
32.46,217
32.71,209
32.96,177
33.21,180
33.46,234
33.71,327
33.96,793
34.21,1007
34.46,798
34.71,894
34.96,759
35.21,173
35.46,175
35.71,169
35.96,922
36.21,163
36.46,130
36.71,139
36.96,135
37.21,141
37.46,150
37.71,160
37.96,164
38.21,162
38.46,171
38.71,148
38.96,147
39.21,174
39.46,1186
39.71,399
39.96,195
40.21,155
40.46,168
40.71,184
40.96,180
41.21,139
41.46,137
41.71,176
41.96,325
42.21,1202
42.46,498
42.71,220
42.96,303
43.21,1295
43.46,372
43.71,153
43.96,164
44.21,279
44.46,511
44.71,266
44.96,478
45.21,833
45.46,216
45.71,154
45.96,135
46.21,154
46.46,158
46.71,332
46.96,720
47.21,830
47.46,1149
47.71,419
47.96,152
48.21,142
48.46,849
48.71,397
48.96,170
49.21,227
49.46,150
49.71,112
49.96,164
50.21,169
50.46,115
50.71,121
50.96,112
51.21,111
51.46,122
51.71,95
51.96,106
52.21,104
52.46,126
52.71,106
52.96,158
53.21,120
53.46,113
53.71,100
53.96,142
54.21,159
54.46,124
54.71,187
54.96,289
55.21,222
55.46,154
55.71,190
55.96,247
56.21,274
56.46,223
56.71,434
56.96,178
57.21,130
57.46,530
57.71,121
57.96,117
58.21,140
58.46,110
58.71,88
58.96,108
59.21,127
59.46,200
59.71,114
59.96,127
60.21,137
60.46,134
60.71,482
60.96,292
61.21,315
61.46,319
61.71,182
61.96,165
62.21,142
62.46,146
62.71,116
62.96,152
63.21,172
63.46,110
63.71,94
63.96,92
64.21,93
64.46,94
64.71,326
64.96,112
65.21,78
65.46,95
65.71,179
65.96,85
66.21,77
66.46,98
66.71,80
66.96,107
67.21,91
67.46,99
67.71,83
67.96,104
68.21,171
68.46,261
68.71,298
68.96,242
69.21,238
69.46,165
69.71,148
69.96,225