File: Fig S2/FigS2_A_XRD_mixture_x5.csv
Bragg_angle,Intensity
\circ,a.u.
5,226
5.24,239
5.48,232
5.72,197
5.96,164
6.2,177
6.44,178
6.68,170
6.92,173
7.16,139
7.4,175
7.64,172
7.88,171
8.12,156
8.36,126
8.6,138
8.84,152
9.08,189
9.32,229
9.56,270
9.8,257
10.04,271
10.28,212
10.52,174
10.76,141
11,112
11.24,119
11.48,133
11.72,125
11.96,114
12.2,120
12.44,105
12.68,108
12.92,126
13.16,104
13.4,114
13.64,118
13.88,105
14.12,129
14.36,109
14.6,115
14.84,113
15.08,109
15.32,105
15.56,114
15.8,99
16.04,117
16.28,128
16.52,91
16.76,92
17,85
17.24,91
17.48,87
17.72,107
17.96,92
18.2,85
18.44,83
18.68,79
18.92,87
19.16,102
19.4,136
19.64,630
19.88,230
20.12,214
20.36,96
20.6,78
20.84,82
21.08,87
21.32,85
21.56,83
21.8,90
22.04,91
22.28,86
22.52,74
22.76,68
23,75
23.24,147
23.48,117
23.72,230
23.96,1809
24.2,1819
24.44,1597
24.68,208
24.92,142
25.16,99
25.4,83
25.64,96
25.88,81
26.12,74
26.36,71
26.6,91
26.84,80
27.08,70
27.32,63
27.56,84
27.8,261
28.04,106
28.28,68
28.52,71
28.76,70
29,80
29.24,94
29.48,535
29.72,230
29.96,86
30.2,67
30.44,76
30.68,82
30.92,68
31.16,76
31.4,70
31.64,90
31.88,61
32.12,74
32.36,60
32.6,73
32.84,86
33.08,80
33.32,109
33.56,130
33.8,377
34.04,539
34.28,1000
34.52,809
34.76,1242
35,171
35.24,86
35.48,71
35.72,63
35.96,79
36.2,107
36.44,72
36.68,64
36.92,54
37.16,52
37.4,52
37.64,47
37.88,84
38.12,61
38.36,63
38.6,60
38.84,69
39.08,62
39.32,84
39.56,471
39.8,191
40.04,72
40.28,94
40.52,138
40.76,109
41,75
41.24,54
41.48,72
41.72,83
41.96,269
42.2,1121
42.44,297
42.68,187
42.92,299
43.16,449
43.4,167
43.64,81
43.88,75
44.12,98
44.36,323
44.6,270
44.84,358
45.08,736
45.32,128
45.56,76
45.8,62
46.04,63
46.28,68
46.52,77
46.76,118
47,524
47.24,312
47.48,96
47.72,174
47.96,53
48.2,78
48.44,75
48.68,252
48.92,78
49.16,121
49.4,81
49.64,70
49.88,99
50.12,50
50.36,56
50.6,45
50.84,39
51.08,37
51.32,42
51.56,41
51.8,44
52.04,43
52.28,54
52.52,34
52.76,60
53,108
53.24,64
53.48,73
53.72,98
53.96,103
54.2,77
54.44,101
54.68,108
54.92,225
55.16,146
55.4,125
55.64,168
55.88,284
56.12,137
56.36,240
56.6,166
56.84,84
57.08,45
57.32,74
57.56,207
57.8,44
58.04,47
58.28,48
58.52,44
58.76,49
59,65
59.24,144
59.48,78
59.72,58
59.96,81
60.2,65
60.44,81
60.68,85
60.92,211
61.16,252
61.4,148
61.64,159
61.88,86
62.12,115
62.36,90
62.6,92
62.84,70
63.08,60
63.32,50
63.56,28
63.8,45
64.04,36
64.28,35
64.52,30
64.76,103
65,72
65.24,30
65.48,47
65.72,117
65.96,64
66.2,26
66.44,48
66.68,35
66.92,40
67.16,41
67.4,41
67.64,45
67.88,58
68.12,106
68.36,237
68.6,178
68.84,180
69.08,92
69.32,62
69.56,101
69.8,209
70.01,151
,