File: Fig S2/FigS2_C_XRD_ACBC_x06.csv
Bragg_angle,Intensity
\circ,a.u.
5,290
5.3,248
5.6,270
5.9,259
6.2,268
6.5,271
6.8,235
7.1,207
7.4,193
7.7,213
8,176
8.3,175
8.6,182
8.9,232
9.2,253
9.5,309
9.8,362
10.1,304
10.4,276
10.7,186
11,172
11.3,154
11.6,153
11.9,143
12.2,149
12.5,173
12.8,153
13.1,164
13.4,134
13.7,118
14,113
14.3,134
14.6,154
14.9,141
15.2,132
15.5,139
15.8,138
16.1,132
16.4,150
16.7,131
17,138
17.3,128
17.6,125
17.9,128
18.2,120
18.5,121
18.8,109
19.1,131
19.4,107
19.7,87
20,105
20.3,117
20.6,109
20.9,174
21.2,355
21.5,104
21.8,130
22.1,109
22.4,134
22.7,135
23,240
23.3,211
23.6,112
23.9,107
24.2,137
24.5,146
24.8,290
25.1,722
25.4,180
25.7,148
26,128
26.3,115
26.6,183
26.9,260
27.2,1115
27.5,405
27.8,142
28.1,142
28.4,144
28.7,151
29,185
29.3,1285
29.6,1174
29.9,161
30.2,129
30.5,137
30.8,137
31.1,122
31.4,134
31.7,123
32,129
32.3,150
32.6,277
32.9,1066
33.2,415
33.5,170
33.8,135
34.1,106
34.4,108
34.7,118
35,101
35.3,108
35.6,140
35.9,179
36.2,313
36.5,103
36.8,101
37.1,89
37.4,82
37.7,86
38,95
38.3,108
38.6,115
38.9,152
39.2,188
39.5,664
39.8,137
40.1,147
40.4,124
40.7,111
41,122
41.3,104
41.6,108
41.9,115
42.2,113
42.5,112
42.8,209
43.1,343
43.4,327
43.7,278
44,618
44.3,256
44.6,139
44.9,115
45.2,99
45.5,112
45.8,98
46.1,95
46.4,96
46.7,108
47,218
47.3,369
47.6,249
47.9,124
48.2,211
48.5,589
48.8,138
49.1,230
49.4,223
49.7,152
50,340
50.3,529
50.6,163
50.9,96
51.2,119
51.5,92
51.8,71
52.1,71
52.4,84
52.7,72
53,65
53.3,68
53.6,61
53.9,66
54.2,86
54.5,68
54.8,75
55.1,87
55.4,101
55.7,164
56,237
56.3,118
56.6,165
56.9,99
57.2,138
57.5,330
57.8,102
58.1,71
58.4,57
58.7,59
59,51
59.3,71
59.6,67
59.9,81
60.2,79
60.5,142
60.8,196
61.1,116
61.4,102
61.7,63
62,51
62.3,56
62.6,69
62.9,111
63.2,111
63.5,69
63.8,54
64.1,45
64.4,80
64.7,205
65,89
65.3,77
65.6,70
65.9,53
66.2,55
66.5,52
66.8,47
67.1,57
67.4,57
67.7,69
68,65
68.3,74
68.6,87
68.9,96
69.2,81
69.5,81
69.8,76
70.1,89
70.4,62
70.7,84
71,64
71.3,60
71.6,72
71.9,118
72.2,111
72.5,84
72.8,98
73.1,91
73.4,108
73.7,145
74,103
74.3,60
74.6,52
74.9,48
75.2,55
75.5,53
75.8,50
76.1,74
76.4,73
76.7,83
77,63
77.3,50
77.6,51
77.9,39
78.2,64
78.5,54
78.8,64
79.1,48
79.4,50
79.7,45
80,41