File: Fig S2/FigS2_A_XRD_mixture_x875.csv
Bragg_angle,Intensity
\circ,a.u.
5,207
5.24,238
5.48,227
5.72,215
5.96,178
6.2,175
6.44,146
6.68,173
6.92,122
7.16,136
7.4,154
7.64,180
7.88,151
8.12,146
8.36,128
8.6,128
8.84,113
9.08,168
9.32,206
9.56,209
9.8,240
10.04,238
10.28,200
10.52,173
10.76,121
11,114
11.24,105
11.48,122
11.72,98
11.96,119
12.2,118
12.44,136
12.68,109
12.92,122
13.16,105
13.4,111
13.64,108
13.88,107
14.12,122
14.36,101
14.6,122
14.84,118
15.08,99
15.32,105
15.56,109
15.8,106
16.04,103
16.28,86
16.52,86
16.76,90
17,85
17.24,88
17.48,81
17.72,100
17.96,102
18.2,100
18.44,100
18.68,75
18.92,87
19.16,86
19.4,169
19.64,729
19.88,242
20.12,232
20.36,98
20.6,94
20.84,85
21.08,86
21.32,78
21.56,92
21.8,102
22.04,84
22.28,90
22.52,78
22.76,66
23,92
23.24,97
23.48,128
23.72,280
23.96,1962
24.2,1872
24.44,1653
24.68,213
24.92,113
25.16,117
25.4,85
25.64,92
25.88,76
26.12,82
26.36,75
26.6,68
26.84,79
27.08,76
27.32,68
27.56,94
27.8,253
28.04,101
28.28,68
28.52,77
28.76,71
29,60
29.24,71
29.48,235
29.72,183
29.96,87
30.2,68
30.44,63
30.68,71
30.92,77
31.16,63
31.4,87
31.64,63
31.88,57
32.12,72
32.36,69
32.6,87
32.84,82
33.08,80
33.32,111
33.56,121
33.8,376
34.04,483
34.28,1011
34.52,862
34.76,1396
35,165
35.24,107
35.48,72
35.72,72
35.96,67
36.2,90
36.44,59
36.68,61
36.92,56
37.16,50
37.4,62
37.64,61
37.88,80
38.12,89
38.36,60
38.6,51
38.84,54
39.08,69
39.32,88
39.56,378
39.8,195
40.04,96
40.28,92
40.52,134
40.76,103
41,64
41.24,74
41.48,80
41.72,97
41.96,298
42.2,1250
42.44,310
42.68,240
42.92,322
43.16,420
43.4,191
43.64,93
43.88,73
44.12,112
44.36,370
44.6,296
44.84,365
45.08,692
45.32,131
45.56,87
45.8,53
46.04,70
46.28,45
46.52,61
46.76,115
47,518
47.24,239
47.48,66
47.72,101
47.96,63
48.2,66
48.44,49
48.68,94
48.92,86
49.16,153
49.4,73
49.64,84
49.88,93
50.12,78
50.36,56
50.6,44
50.84,37
51.08,39
51.32,47
51.56,41
51.8,49
52.04,48
52.28,51
52.52,57
52.76,93
53,110
53.24,72
53.48,75
53.72,120
53.96,96
54.2,91
54.44,106
54.68,128
54.92,273
55.16,194
55.4,143
55.64,193
55.88,320
56.12,167
56.36,276
56.6,180
56.84,83
57.08,59
57.32,71
57.56,82
57.8,66
58.04,38
58.28,51
58.52,42
58.76,60
59,49
59.24,162
59.48,92
59.72,53
59.96,115
60.2,54
60.44,63
60.68,93
60.92,191
61.16,260
61.4,148
61.64,151
61.88,102
62.12,117
62.36,92
62.6,118
62.84,71
63.08,51
63.32,55
63.56,40
63.8,47
64.04,35
64.28,37
64.52,38
64.76,62
65,57
65.24,50
65.48,38
65.72,62
65.96,54
66.2,32
66.44,33
66.68,49
66.92,42
67.16,32
67.4,47
67.64,46
67.88,56
68.12,124
68.36,258
68.6,157
68.84,180
69.08,78
69.32,87
69.56,91
69.8,186
70.01,170
,