File: Fig S2/FigS2_A_XRD_mixture_x935.csv
Bragg_angle,Intensity
\circ,a.u.
5,241
5.24,193
5.48,225
5.72,198
5.96,161
6.2,142
6.44,138
6.68,119
6.92,139
7.16,140
7.4,143
7.64,155
7.88,162
8.12,139
8.36,113
8.6,112
8.84,122
9.08,151
9.32,175
9.56,262
9.8,212
10.04,243
10.28,214
10.52,180
10.76,119
11,130
11.24,107
11.48,107
11.72,111
11.96,106
12.2,109
12.44,102
12.68,124
12.92,127
13.16,112
13.4,93
13.64,116
13.88,98
14.12,98
14.36,100
14.6,115
14.84,95
15.08,97
15.32,122
15.56,105
15.8,95
16.04,107
16.28,99
16.52,92
16.76,85
17,98
17.24,77
17.48,89
17.72,99
17.96,75
18.2,91
18.44,80
18.68,71
18.92,79
19.16,98
19.4,196
19.64,1031
19.88,310
20.12,351
20.36,89
20.6,104
20.84,81
21.08,80
21.32,80
21.56,109
21.8,88
22.04,90
22.28,75
22.52,76
22.76,76
23,87
23.24,90
23.48,98
23.72,181
23.96,1263
24.2,1958
24.44,1558
24.68,236
24.92,109
25.16,97
25.4,92
25.64,68
25.88,87
26.12,73
26.36,81
26.6,74
26.84,75
27.08,74
27.32,71
27.56,70
27.8,158
28.04,107
28.28,71
28.52,78
28.76,52
29,78
29.24,73
29.48,92
29.72,135
29.96,78
30.2,61
30.44,68
30.68,73
30.92,68
31.16,72
31.4,74
31.64,56
31.88,54
32.12,48
32.36,66
32.6,74
32.84,88
33.08,73
33.32,108
33.56,162
33.8,384
34.04,641
34.28,893
34.52,821
34.76,1870
35,255
35.24,91
35.48,70
35.72,86
35.96,72
36.2,76
36.44,57
36.68,69
36.92,67
37.16,56
37.4,65
37.64,56
37.88,78
38.12,84
38.36,79
38.6,61
38.84,61
39.08,76
39.32,79
39.56,328
39.8,312
40.04,123
40.28,126
40.52,157
40.76,138
41,81
41.24,63
41.48,74
41.72,107
41.96,222
42.2,1466
42.44,404
42.68,215
42.92,293
43.16,509
43.4,161
43.64,93
43.88,70
44.12,91
44.36,295
44.6,257
44.84,289
45.08,637
45.32,112
45.56,65
45.8,66
46.04,58
46.28,78
46.52,65
46.76,87
47,381
47.24,183
47.48,58
47.72,59
47.96,54
48.2,85
48.44,54
48.68,74
48.92,79
49.16,153
49.4,64
49.64,69
49.88,104
50.12,62
50.36,42
50.6,36
50.84,36
51.08,40
51.32,54
51.56,48
51.8,41
52.04,43
52.28,40
52.52,62
52.76,108
53,102
53.24,79
53.48,76
53.72,144
53.96,132
54.2,92
54.44,121
54.68,139
54.92,293
55.16,184
55.4,155
55.64,210
55.88,373
56.12,202
56.36,269
56.6,216
56.84,83
57.08,50
57.32,55
57.56,64
57.8,56
58.04,56
58.28,47
58.52,50
58.76,51
59,45
59.24,116
59.48,82
59.72,55
59.96,69
60.2,63
60.44,65
60.68,103
60.92,227
61.16,247
61.4,149
61.64,126
61.88,88
62.12,111
62.36,106
62.6,116
62.84,106
63.08,63
63.32,51
63.56,35
63.8,46
64.04,53
64.28,45
64.52,39
64.76,36
65,39
65.24,34
65.48,46
65.72,42
65.96,33
66.2,46
66.44,35
66.68,42
66.92,50
67.16,33
67.4,42
67.64,40
67.88,50
68.12,101
68.36,238
68.6,152
68.84,146
69.08,95
69.32,77
69.56,90
69.8,186
70.01,182
,