File: Fig S2/FigS2_C_XRD_ACBC_x13.csv
Bragg_angle,Intensity
\circ,a.u.
4.87,275
5.17,294
5.47,241
5.77,256
6.07,273
6.37,272
6.67,253
6.97,203
7.27,194
7.57,224
7.87,181
8.17,184
8.47,186
8.77,232
9.07,296
9.37,361
9.67,339
9.97,332
10.27,282
10.57,202
10.87,165
11.17,147
11.47,129
11.77,156
12.07,139
12.37,141
12.67,162
12.97,161
13.27,156
13.57,156
13.87,137
14.17,141
14.47,158
14.77,151
15.07,156
15.37,156
15.67,164
15.97,170
16.27,182
16.57,156
16.87,162
17.17,146
17.47,130
17.77,110
18.07,118
18.37,113
18.67,133
18.97,115
19.27,121
19.57,132
19.87,117
20.17,145
20.47,113
20.77,137
21.07,133
21.37,126
21.67,126
21.97,125
22.27,137
22.57,149
22.87,703
23.17,112
23.47,125
23.77,113
24.07,102
24.37,112
24.67,169
24.97,193
25.27,121
25.57,105
25.87,119
26.17,138
26.47,118
26.77,147
27.07,235
27.37,134
27.67,111
27.97,129
28.27,148
28.57,164
28.87,556
29.17,2528
29.47,155
29.77,119
30.07,105
30.37,104
30.67,99
30.97,121
31.27,82
31.57,89
31.87,87
32.17,98
32.47,145
32.77,277
33.07,122
33.37,93
33.67,103
33.97,93
34.27,97
34.57,102
34.87,85
35.17,107
35.47,99
35.77,533
36.07,131
36.37,95
36.67,83
36.97,83
37.27,73
37.57,86
37.87,109
38.17,89
38.47,92
38.77,111
39.07,250
39.37,163
39.67,114
39.97,100
40.27,86
40.57,99
40.87,100
41.17,93
41.47,87
41.77,87
42.07,111
42.37,104
42.67,180
42.97,545
43.27,123
43.57,153
43.87,173
44.17,100
44.47,111
44.77,94
45.07,76
45.37,79
45.67,97
45.97,88
46.27,124
46.57,255
46.87,779
47.17,218
47.47,118
47.77,162
48.07,560
48.37,171
48.67,105
48.97,100
49.27,79
49.57,89
49.87,158
50.17,129
50.47,80
50.77,67
51.07,68
51.37,66
51.67,57
51.97,56
52.27,60
52.57,58
52.87,61
53.17,57
53.47,43
53.77,51
54.07,61
54.37,56
54.67,65
54.97,62
55.27,80
55.57,93
55.87,82
56.17,72
56.47,67
56.77,85
57.07,322
57.37,130
57.67,52
57.97,49
58.27,44
58.57,48
58.87,71
59.17,58
59.47,64
59.77,58
60.07,100
60.37,234
60.67,109
60.97,67
61.27,52
61.57,57
61.87,56
62.17,57
62.47,85
62.77,71
63.07,65
63.37,52
63.67,58
63.97,74
64.27,202
64.57,117
64.87,63
65.17,62
65.47,51
65.77,60
66.07,39
66.37,47
66.67,61
66.97,45
67.27,46
67.57,50
67.87,37
68.17,65
68.47,69
68.77,81
69.07,69
69.37,97
69.67,61
69.97,45
70.27,55
70.57,59
70.87,54
71.17,61
71.47,83
71.77,66
72.07,137
72.37,89
72.67,57
72.97,88
73.27,89
73.57,69
73.87,54
74.17,59
74.47,54
74.77,44
75.07,52
75.37,53
75.67,95
75.97,124
76.27,58
76.57,49
76.87,36
77.17,35
77.47,43
77.77,46
78.07,41
78.37,40
78.67,48
78.97,45
79.27,36
79.57,42
79.87,43