File: Fig S2/FigS2_A_XRD_mixture_x0625.csv
Bragg_angle,Intensity
\circ,a.u.
5,241
5.24,235
5.48,242
5.72,207
5.96,205
6.2,249
6.44,260
6.68,201
6.92,223
7.16,188
7.4,182
7.64,163
7.88,193
8.12,186
8.36,169
8.6,219
8.84,266
9.08,308
9.32,341
9.56,369
9.8,379
10.04,374
10.28,303
10.52,239
10.76,175
11,173
11.24,191
11.48,124
11.72,136
11.96,143
12.2,148
12.44,136
12.68,133
12.92,146
13.16,115
13.4,132
13.64,136
13.88,143
14.12,126
14.36,123
14.6,116
14.84,136
15.08,131
15.32,105
15.56,105
15.8,95
16.04,111
16.28,134
16.52,111
16.76,110
17,104
17.24,101
17.48,91
17.72,82
17.96,92
18.2,82
18.44,88
18.68,88
18.92,99
19.16,81
19.4,102
19.64,110
19.88,99
20.12,82
20.36,87
20.6,75
20.84,93
21.08,65
21.32,85
21.56,69
21.8,64
22.04,70
22.28,70
22.52,74
22.76,75
23,276
23.24,141
23.48,87
23.72,122
23.96,812
24.2,310
24.44,182
24.68,75
24.92,71
25.16,68
25.4,71
25.64,59
25.88,70
26.12,60
26.36,71
26.6,134
26.84,61
27.08,81
27.32,69
27.56,63
27.8,158
28.04,54
28.28,73
28.52,110
28.76,92
29,119
29.24,536
29.48,10326
29.72,187
29.96,86
30.2,74
30.44,91
30.68,79
30.92,89
31.16,71
31.4,122
31.64,82
31.88,68
32.12,63
32.36,65
32.6,77
32.84,73
33.08,65
33.32,61
33.56,64
33.8,101
34.04,111
34.28,192
34.52,184
34.76,123
35,46
35.24,46
35.48,64
35.72,66
35.96,495
36.2,101
36.44,43
36.68,47
36.92,53
37.16,41
37.4,53
37.64,48
37.88,47
38.12,39
38.36,49
38.6,54
38.84,57
39.08,53
39.32,220
39.56,976
39.8,61
40.04,54
40.28,57
40.52,63
40.76,40
41,44
41.24,59
41.48,54
41.72,51
41.96,133
42.2,156
42.44,94
42.68,86
42.92,110
43.16,909
43.4,206
43.64,66
43.88,66
44.12,63
44.36,101
44.6,73
44.84,121
45.08,102
45.32,46
45.56,38
45.8,51
46.04,55
46.28,41
46.52,55
46.76,114
47,184
47.24,332
47.48,790
47.72,764
47.96,57
48.2,65
48.44,296
48.68,1021
48.92,81
49.16,70
49.4,59
49.64,54
49.88,51
50.12,41
50.36,46
50.6,45
50.84,42
51.08,40
51.32,26
51.56,38
51.8,41
52.04,33
52.28,40
52.52,40
52.76,40
53,54
53.24,45
53.48,25
53.72,42
53.96,31
54.2,28
54.44,48
54.68,47
54.92,76
55.16,38
55.4,54
55.64,56
55.88,61
56.12,49
56.36,99
56.6,341
56.84,64
57.08,40
57.32,110
57.56,354
57.8,42
58.04,65
58.28,93
58.52,41
58.76,31
59,41
59.24,44
59.48,39
59.72,41
59.96,29
60.2,33
60.44,57
60.68,467
60.92,265
61.16,140
61.4,321
61.64,106
61.88,51
62.12,43
62.36,43
62.6,34
62.84,36
63.08,190
63.32,89
63.56,34
63.8,27
64.04,23
64.28,41
64.52,53
64.76,268
65,55
65.24,31
65.48,47
65.72,138
65.96,36
66.2,28
66.44,30
66.68,31
66.92,36
67.16,29
67.4,37
67.64,34
67.88,41
68.12,52
68.36,66
68.6,66
68.84,57
69.08,44
69.32,58
69.56,39
69.8,44
70.01,56
,