File: Fig S2/FigS2_A_XRD_mixture_x125.csv
Bragg_angle,Intensity
\circ,a.u.
5,264
5.24,249
5.48,223
5.72,260
5.96,204
6.2,267
6.44,222
6.68,192
6.92,188
7.16,180
7.4,171
7.64,184
7.88,169
8.12,162
8.36,155
8.6,167
8.84,206
9.08,258
9.32,288
9.56,289
9.8,323
10.04,291
10.28,251
10.52,209
10.76,154
11,156
11.24,108
11.48,122
11.72,140
11.96,136
12.2,115
12.44,139
12.68,138
12.92,103
13.16,133
13.4,135
13.64,132
13.88,115
14.12,121
14.36,119
14.6,136
14.84,132
15.08,122
15.32,111
15.56,124
15.8,119
16.04,123
16.28,108
16.52,119
16.76,99
17,92
17.24,101
17.48,101
17.72,91
17.96,105
18.2,91
18.44,90
18.68,88
18.92,77
19.16,85
19.4,136
19.64,86
19.88,116
20.12,100
20.36,86
20.6,92
20.84,69
21.08,70
21.32,69
21.56,91
21.8,76
22.04,68
22.28,79
22.52,77
22.76,90
23,293
23.24,100
23.48,95
23.72,191
23.96,1310
24.2,522
24.44,222
24.68,77
24.92,72
25.16,67
25.4,64
25.64,65
25.88,72
26.12,64
26.36,76
26.6,109
26.84,62
27.08,56
27.32,67
27.56,77
27.8,219
28.04,69
28.28,64
28.52,73
28.76,84
29,87
29.24,572
29.48,7254
29.72,151
29.96,93
30.2,77
30.44,77
30.68,80
30.92,69
31.16,81
31.4,158
31.64,78
31.88,49
32.12,64
32.36,65
32.6,69
32.84,57
33.08,47
33.32,62
33.56,89
33.8,160
34.04,212
34.28,291
34.52,290
34.76,137
35,63
35.24,51
35.48,76
35.72,70
35.96,836
36.2,85
36.44,53
36.68,51
36.92,50
37.16,42
37.4,54
37.64,44
37.88,57
38.12,79
38.36,51
38.6,58
38.84,50
39.08,54
39.32,202
39.56,761
39.8,69
40.04,64
40.28,50
40.52,59
40.76,45
41,40
41.24,51
41.48,48
41.72,66
41.96,284
42.2,184
42.44,94
42.68,106
42.92,165
43.16,1188
43.4,109
43.64,50
43.88,55
44.12,91
44.36,132
44.6,130
44.84,250
45.08,134
45.32,66
45.56,43
45.8,43
46.04,51
46.28,53
46.52,70
46.76,181
47,291
47.24,270
47.48,900
47.72,269
47.96,51
48.2,59
48.44,386
48.68,690
48.92,97
49.16,66
49.4,59
49.64,58
49.88,50
50.12,49
50.36,43
50.6,48
50.84,42
51.08,40
51.32,37
51.56,29
51.8,33
52.04,42
52.28,32
52.52,43
52.76,47
53,54
53.24,37
53.48,50
53.72,43
53.96,41
54.2,45
54.44,46
54.68,84
54.92,79
55.16,64
55.4,58
55.64,91
55.88,99
56.12,62
56.36,91
56.6,319
56.84,57
57.08,46
57.32,175
57.56,327
57.8,36
58.04,48
58.28,60
58.52,41
58.76,38
59,44
59.24,52
59.48,39
59.72,43
59.96,41
60.2,39
60.44,49
60.68,515
60.92,222
61.16,182
61.4,235
61.64,66
61.88,42
62.12,56
62.36,40
62.6,43
62.84,41
63.08,144
63.32,50
63.56,39
63.8,24
64.04,30
64.28,29
64.52,60
64.76,177
65,46
65.24,32
65.48,57
65.72,89
65.96,34
66.2,23
66.44,29
66.68,24
66.92,28
67.16,30
67.4,27
67.64,41
67.88,37
68.12,95
68.36,73
68.6,80
68.84,76
69.08,38
69.32,68
69.56,78
69.8,76
70.01,67
,