File: Fig S2/FigS2_B_XRD_witherite_100mM_CaCl2.csv
Bragg_angle,Intensity
\circ,a.u.
9.87,251
10.08,279
10.29,210
10.5,167
10.71,140
10.92,129
11.13,131
11.34,131
11.55,159
11.76,157
11.97,138
12.18,125
12.39,135
12.6,136
12.81,146
13.02,150
13.23,112
13.44,119
13.65,126
13.86,105
14.07,114
14.28,156
14.49,152
14.7,127
14.91,117
15.12,118
15.33,106
15.54,115
15.75,129
15.96,93
16.17,117
16.38,106
16.59,94
16.8,109
17.01,110
17.22,93
17.43,100
17.64,90
17.85,92
18.06,93
18.27,101
18.48,104
18.69,107
18.9,108
19.11,146
19.32,529
19.53,338
19.74,260
19.95,183
20.16,102
20.37,114
20.58,103
20.79,83
21,78
21.21,87
21.42,110
21.63,94
21.84,95
22.05,95
22.26,85
22.47,69
22.68,111
22.89,90
23.1,98
23.31,133
23.52,262
23.73,1559
23.94,2215
24.15,1537
24.36,404
24.57,143
24.78,108
24.99,110
25.2,100
25.41,87
25.62,90
25.83,88
26.04,74
26.25,79
26.46,91
26.67,74
26.88,65
27.09,74
27.3,85
27.51,135
27.72,368
27.93,77
28.14,74
28.35,72
28.56,78
28.77,77
28.98,105
29.19,425
29.4,387
29.61,118
29.82,85
30.03,77
30.24,66
30.45,74
30.66,79
30.87,78
31.08,95
31.29,67
31.5,57
31.71,66
31.92,58
32.13,62
32.34,86
32.55,98
32.76,89
32.97,79
33.18,123
33.39,149
33.6,439
33.81,552
34.02,1030
34.23,760
34.44,1251
34.65,587
34.86,144
35.07,80
35.28,85
35.49,78
35.7,81
35.91,155
36.12,73
36.33,72
36.54,62
36.75,58
36.96,64
37.17,62
37.38,63
37.59,70
37.8,92
38.01,73
38.22,65
38.43,71
38.64,67
38.85,79
39.06,78
39.27,224
39.48,435
39.69,137
39.9,108
40.11,104
40.32,140
40.53,129
40.74,68
40.95,66
41.16,87
41.37,74
41.58,109
41.79,456
42,1083
42.21,296
42.42,202
42.63,249
42.84,472
43.05,316
43.26,112
43.47,77
43.68,70
43.89,100
44.1,317
44.31,266
44.52,270
44.73,577
44.94,486
45.15,97
45.36,65
45.57,50
45.78,69
45.99,86
46.2,69
46.41,102
46.62,257
46.83,600
47.04,241
47.25,155
47.46,70
47.67,58
47.88,83
48.09,81
48.3,101
48.51,93
48.72,85
48.93,140
49.14,84
49.35,65
49.56,78
49.77,100
49.98,64
50.19,61
50.4,47
50.61,64
50.82,46
51.03,50
51.24,47
51.45,46
51.66,45
51.87,45
52.08,49
52.29,57
52.5,72
52.71,101
52.92,91
53.13,58
53.34,72
53.55,123
53.76,98
53.97,95
54.18,114
54.39,139
54.6,224
54.81,216
55.02,147
55.23,121
55.44,198
55.65,340
55.86,178
56.07,228
56.28,230
56.49,102
56.7,76
56.91,48
57.12,83
57.33,101
57.54,58
57.75,59
57.96,64
58.17,37
58.38,61
58.59,55
58.8,60
59.01,158
59.22,104
59.43,61
59.64,77
59.85,81
60.06,70
60.27,73
60.48,132
60.69,188
60.9,260
61.11,207
61.32,153
61.53,122
61.74,98
61.95,92
62.16,97
62.37,112
62.58,101
62.79,65
63,38
63.21,50
63.42,33
63.63,38
63.84,44
64.05,36
64.26,37
64.47,62
64.68,43
64.89,54
65.1,36
65.31,32
65.52,42
65.73,36
65.94,45
66.15,44
66.36,50
66.57,33
66.78,42
66.99,42
67.2,55
67.41,37
67.62,57
67.83,76
68.04,283
68.25,245
68.46,173
68.67,158
68.88,89
69.09,72
69.3,93
69.51,176
69.72,199
69.87,147